# Time: 2025-04-13T20:09:57-07:00
# Header Rows: 22
# File Format: 2
# Device: APE PulseLink 150
# Serial: S07246
# Firmware: 787
# Software: 1.8.5.1
# Sensitivity: 10
# Gain: 380
# Scan Range [ps]: 150.0
# Filter ACF: 0
# Average: 16
# Trigger: 0
# Trigger Frequency [Hz]: N/A
# ACF [ps]: 15.658
# Fit Type: None
# Fit Pulse Duration [ps]: 0.000
# FWHM Valid: 0
# ==========
# Delay [ps]	Intensity [arb.u.]
# ==========
-75.000000	0.007014
-74.924962	0.006879
-74.849925	0.006537
-74.774887	0.006996
-74.699850	0.006748
-74.624812	0.006919
-74.549775	0.006599
-74.474737	0.006900
-74.399700	0.006383
-74.324662	0.007127
-74.249625	0.006925
-74.174587	0.006981
-74.099550	0.006699
-74.024512	0.006771
-73.949475	0.006611
-73.874437	0.006782
-73.799400	0.006825
-73.724362	0.006622
-73.649325	0.006696
-73.574287	0.006782
-73.499250	0.006744
-73.424212	0.006940
-73.349175	0.006437
-73.274137	0.006871
-73.199100	0.006929
-73.124062	0.006555
-73.049025	0.006711
-72.973987	0.006931
-72.898949	0.006834
-72.823912	0.007046
-72.748874	0.006842
-72.673837	0.006917
-72.598799	0.006545
-72.523762	0.006657
-72.448724	0.006867
-72.373687	0.006688
-72.298649	0.006809
-72.223612	0.006767
-72.148574	0.006902
-72.073537	0.006944
-71.998499	0.006898
-71.923462	0.006883
-71.848424	0.006618
-71.773387	0.006908
-71.698349	0.006817
-71.623312	0.006753
-71.548274	0.006555
-71.473237	0.006927
-71.398199	0.006917
-71.323162	0.007068
-71.248124	0.006921
-71.173087	0.006636
-71.098049	0.006771
-71.023012	0.006817
-70.947974	0.006663
-70.872936	0.006755
-70.797899	0.006555
-70.722861	0.006522
-70.647824	0.006564
-70.572786	0.006576
-70.497749	0.006886
-70.422711	0.006996
-70.347674	0.006615
-70.272636	0.006547
-70.197599	0.006846
-70.122561	0.006503
-70.047524	0.006580
-69.972486	0.006807
-69.897449	0.006595
-69.822411	0.006680
-69.747374	0.006761
-69.672336	0.006942
-69.597299	0.006694
-69.522261	0.007087
-69.447224	0.006564
-69.372186	0.006773
-69.297149	0.006618
-69.222111	0.006844
-69.147074	0.006653
-69.072036	0.006763
-68.996998	0.006807
-68.921961	0.006844
-68.846923	0.006724
-68.771886	0.006900
-68.696848	0.006732
-68.621811	0.006696
-68.546773	0.006584
-68.471736	0.006485
-68.396698	0.006582
-68.321661	0.006630
-68.246623	0.006665
-68.171586	0.006572
-68.096548	0.006526
-68.021511	0.007199
-67.946473	0.007012
-67.871436	0.006661
-67.796398	0.006850
-67.721361	0.006775
-67.646323	0.006765
-67.571286	0.006568
-67.496248	0.006989
-67.421211	0.006553
-67.346173	0.006724
-67.271136	0.006987
-67.196098	0.006775
-67.121061	0.006869
-67.046023	0.006657
-66.970985	0.006572
-66.895948	0.006813
-66.820910	0.006458
-66.745873	0.006921
-66.670835	0.006902
-66.595798	0.006665
-66.520760	0.007145
-66.445723	0.006684
-66.370685	0.006651
-66.295648	0.006811
-66.220610	0.007075
-66.145573	0.006950
-66.070535	0.006746
-65.995498	0.006692
-65.920460	0.006412
-65.845423	0.007035
-65.770385	0.006694
-65.695348	0.006919
-65.620310	0.006927
-65.545273	0.006742
-65.470235	0.007110
-65.395198	0.006888
-65.320160	0.006663
-65.245123	0.006746
-65.170085	0.006856
-65.095048	0.006549
-65.020010	0.006981
-64.944972	0.006896
-64.869935	0.006767
-64.794897	0.006817
-64.719860	0.006638
-64.644822	0.006786
-64.569785	0.006865
-64.494747	0.007077
-64.419710	0.006636
-64.344672	0.006879
-64.269635	0.006765
-64.194597	0.006811
-64.119560	0.006655
-64.044522	0.006927
-63.969485	0.006696
-63.894447	0.006680
-63.819410	0.007010
-63.744372	0.006537
-63.669335	0.006848
-63.594297	0.006653
-63.519260	0.006832
-63.444222	0.006574
-63.369185	0.006769
-63.294147	0.006503
-63.219110	0.006790
-63.144072	0.006902
-63.069035	0.006971
-62.993997	0.006996
-62.918959	0.006881
-62.843922	0.006669
-62.768884	0.006439
-62.693847	0.006724
-62.618809	0.006757
-62.543772	0.006913
-62.468734	0.006485
-62.393697	0.006728
-62.318659	0.006620
-62.243622	0.006923
-62.168584	0.006759
-62.093547	0.006859
-62.018509	0.006728
-61.943472	0.006846
-61.868434	0.006545
-61.793397	0.006859
-61.718359	0.006661
-61.643322	0.006746
-61.568284	0.006979
-61.493247	0.006568
-61.418209	0.006329
-61.343172	0.007102
-61.268134	0.006726
-61.193097	0.006807
-61.118059	0.006609
-61.043022	0.006863
-60.967984	0.006775
-60.892946	0.006825
-60.817909	0.006605
-60.742871	0.006784
-60.667834	0.006987
-60.592796	0.006836
-60.517759	0.006881
-60.442721	0.007106
-60.367684	0.006667
-60.292646	0.006713
-60.217609	0.006503
-60.142571	0.006591
-60.067534	0.006896
-59.992496	0.006605
-59.917459	0.006813
-59.842421	0.006667
-59.767384	0.006769
-59.692346	0.007183
-59.617309	0.006647
-59.542271	0.006805
-59.467234	0.006904
-59.392196	0.006759
-59.317159	0.006719
-59.242121	0.006925
-59.167084	0.006958
-59.092046	0.006551
-59.017009	0.006339
-58.941971	0.006549
-58.866933	0.006829
-58.791896	0.006632
-58.716858	0.006424
-58.641821	0.006975
-58.566783	0.006678
-58.491746	0.006628
-58.416708	0.006553
-58.341671	0.006807
-58.266633	0.006927
-58.191596	0.006584
-58.116558	0.006883
-58.041521	0.006802
-57.966483	0.006769
-57.891446	0.006952
-57.816408	0.006832
-57.741371	0.006721
-57.666333	0.007041
-57.591296	0.006588
-57.516258	0.006975
-57.441221	0.007012
-57.366183	0.006802
-57.291146	0.006967
-57.216108	0.006653
-57.141071	0.006848
-57.066033	0.006844
-56.990995	0.006699
-56.915958	0.006809
-56.840920	0.006879
-56.765883	0.006715
-56.690845	0.006678
-56.615808	0.007073
-56.540770	0.006696
-56.465733	0.007075
-56.390695	0.006570
-56.315658	0.006746
-56.240620	0.006844
-56.165583	0.006591
-56.090545	0.006520
-56.015508	0.006832
-55.940470	0.006649
-55.865433	0.006682
-55.790395	0.006645
-55.715358	0.006663
-55.640320	0.006778
-55.565283	0.006520
-55.490245	0.006788
-55.415208	0.006726
-55.340170	0.006906
-55.265133	0.006825
-55.190095	0.006653
-55.115058	0.006748
-55.040020	0.006827
-54.964982	0.006692
-54.889945	0.006948
-54.814907	0.006713
-54.739870	0.006800
-54.664832	0.006877
-54.589795	0.006948
-54.514757	0.006879
-54.439720	0.006788
-54.364682	0.007189
-54.289645	0.006659
-54.214607	0.006645
-54.139570	0.006956
-54.064532	0.006983
-53.989495	0.006925
-53.914457	0.006505
-53.839420	0.006809
-53.764382	0.006813
-53.689345	0.006925
-53.614307	0.006800
-53.539270	0.006850
-53.464232	0.007029
-53.389195	0.006962
-53.314157	0.006773
-53.239120	0.006570
-53.164082	0.007176
-53.089045	0.006775
-53.014007	0.006792
-52.938969	0.006827
-52.863932	0.006886
-52.788894	0.006842
-52.713857	0.006649
-52.638819	0.006640
-52.563782	0.006981
-52.488744	0.006983
-52.413707	0.007056
-52.338669	0.007503
-52.263632	0.006751
-52.188594	0.006836
-52.113557	0.006921
-52.038519	0.007129
-51.963482	0.007168
-51.888444	0.007189
-51.813407	0.007284
-51.738369	0.007166
-51.663332	0.007376
-51.588294	0.006996
-51.513257	0.007490
-51.438219	0.007041
-51.363182	0.007239
-51.288144	0.007133
-51.213107	0.007062
-51.138069	0.006929
-51.063032	0.007264
-50.987994	0.007122
-50.912956	0.007307
-50.837919	0.007199
-50.762881	0.007403
-50.687844	0.007233
-50.612806	0.007268
-50.537769	0.006919
-50.462731	0.007046
-50.387694	0.007247
-50.312656	0.007380
-50.237619	0.007652
-50.162581	0.007390
-50.087544	0.007590
-50.012506	0.007503
-49.937469	0.007075
-49.862431	0.007546
-49.787394	0.006765
-49.712356	0.006848
-49.637319	0.007118
-49.562281	0.007307
-49.487244	0.007075
-49.412206	0.007226
-49.337169	0.007332
-49.262131	0.007478
-49.187094	0.007108
-49.112056	0.006908
-49.037019	0.007492
-48.961981	0.007233
-48.886943	0.007176
-48.811906	0.007048
-48.736868	0.007185
-48.661831	0.007326
-48.586793	0.007228
-48.511756	0.007515
-48.436718	0.007220
-48.361681	0.007507
-48.286643	0.006994
-48.211606	0.007056
-48.136568	0.007083
-48.061531	0.007943
-47.986493	0.007469
-47.911456	0.006846
-47.836418	0.007866
-47.761381	0.007700
-47.686343	0.007798
-47.611306	0.007179
-47.536268	0.007390
-47.461231	0.007692
-47.386193	0.007395
-47.311156	0.007166
-47.236118	0.007106
-47.161081	0.007584
-47.086043	0.006836
-47.011006	0.007255
-46.935968	0.007469
-46.860930	0.006935
-46.785893	0.007025
-46.710855	0.007455
-46.635818	0.007091
-46.560780	0.007075
-46.485743	0.007266
-46.410705	0.007351
-46.335668	0.007274
-46.260630	0.007434
-46.185593	0.007750
-46.110555	0.007708
-46.035518	0.007208
-45.960480	0.007567
-45.885443	0.007621
-45.810405	0.007104
-45.735368	0.007642
-45.660330	0.007823
-45.585293	0.007222
-45.510255	0.007210
-45.435218	0.007062
-45.360180	0.007218
-45.285143	0.007220
-45.210105	0.006996
-45.135068	0.007087
-45.060030	0.007607
-44.984992	0.007214
-44.909955	0.007677
-44.834917	0.007303
-44.759880	0.007208
-44.684842	0.007447
-44.609805	0.007740
-44.534767	0.007777
-44.459730	0.007688
-44.384692	0.007424
-44.309655	0.007696
-44.234617	0.007214
-44.159580	0.007756
-44.084542	0.007791
-44.009505	0.007417
-43.934467	0.007482
-43.859430	0.007629
-43.784392	0.007249
-43.709355	0.007654
-43.634317	0.007839
-43.559280	0.007970
-43.484242	0.007532
-43.409205	0.007401
-43.334167	0.008039
-43.259130	0.007706
-43.184092	0.008400
-43.109055	0.007918
-43.034017	0.007764
-42.958979	0.007773
-42.883942	0.007488
-42.808904	0.007721
-42.733867	0.007835
-42.658829	0.008300
-42.583792	0.008018
-42.508754	0.008195
-42.433717	0.007542
-42.358679	0.007692
-42.283642	0.007833
-42.208604	0.008180
-42.133567	0.007823
-42.058529	0.007802
-41.983492	0.007966
-41.908454	0.007781
-41.833417	0.007970
-41.758379	0.007951
-41.683342	0.008423
-41.608304	0.008126
-41.533267	0.007908
-41.458229	0.007667
-41.383192	0.007723
-41.308154	0.007808
-41.233117	0.008238
-41.158079	0.008080
-41.083042	0.007989
-41.008004	0.007858
-40.932966	0.007586
-40.857929	0.007447
-40.782891	0.008203
-40.707854	0.007542
-40.632816	0.007972
-40.557779	0.007172
-40.482741	0.007563
-40.407704	0.007447
-40.332666	0.007422
-40.257629	0.007174
-40.182591	0.007658
-40.107554	0.007656
-40.032516	0.007181
-39.957479	0.007486
-39.882441	0.007382
-39.807404	0.007513
-39.732366	0.007997
-39.657329	0.007592
-39.582291	0.007112
-39.507254	0.007210
-39.432216	0.007222
-39.357179	0.007486
-39.282141	0.007249
-39.207104	0.007750
-39.132066	0.007513
-39.057029	0.007318
-38.981991	0.007062
-38.906953	0.007179
-38.831916	0.007070
-38.756878	0.007332
-38.681841	0.007208
-38.606803	0.007201
-38.531766	0.007453
-38.456728	0.007671
-38.381691	0.007081
-38.306653	0.007611
-38.231616	0.006962
-38.156578	0.006946
-38.081541	0.006796
-38.006503	0.007104
-37.931466	0.007538
-37.856428	0.007156
-37.781391	0.007399
-37.706353	0.007748
-37.631316	0.007729
-37.556278	0.007253
-37.481241	0.007563
-37.406203	0.007149
-37.331166	0.007295
-37.256128	0.007617
-37.181091	0.007278
-37.106053	0.007727
-37.031016	0.007347
-36.955978	0.007399
-36.880940	0.007958
-36.805903	0.007087
-36.730865	0.007463
-36.655828	0.007179
-36.580790	0.007230
-36.505753	0.007702
-36.430715	0.007717
-36.355678	0.007156
-36.280640	0.007054
-36.205603	0.007156
-36.130565	0.006815
-36.055528	0.007471
-35.980490	0.007085
-35.905453	0.007440
-35.830415	0.006967
-35.755378	0.007282
-35.680340	0.006863
-35.605303	0.006711
-35.530265	0.006607
-35.455228	0.006989
-35.380190	0.007160
-35.305153	0.006659
-35.230115	0.006992
-35.155078	0.006815
-35.080040	0.006817
-35.005003	0.006875
-34.929965	0.007176
-34.854927	0.007187
-34.779890	0.006784
-34.704852	0.006765
-34.629815	0.006593
-34.554777	0.007066
-34.479740	0.006707
-34.404702	0.007091
-34.329665	0.006902
-34.254627	0.006638
-34.179590	0.007156
-34.104552	0.006734
-34.029515	0.006859
-33.954477	0.006965
-33.879440	0.007104
-33.804402	0.006734
-33.729365	0.006908
-33.654327	0.006655
-33.579290	0.006817
-33.504252	0.006827
-33.429215	0.006971
-33.354177	0.006809
-33.279140	0.007023
-33.204102	0.006940
-33.129065	0.006649
-33.054027	0.007114
-32.978989	0.006952
-32.903952	0.006744
-32.828914	0.006655
-32.753877	0.006979
-32.678839	0.007087
-32.603802	0.006971
-32.528764	0.006794
-32.453727	0.006439
-32.378689	0.007021
-32.303652	0.007014
-32.228614	0.006682
-32.153577	0.006919
-32.078539	0.007307
-32.003502	0.006634
-31.928464	0.006790
-31.853427	0.006800
-31.778389	0.006778
-31.703352	0.007183
-31.628314	0.006904
-31.553277	0.006856
-31.478239	0.006757
-31.403202	0.007156
-31.328164	0.006790
-31.253127	0.006468
-31.178089	0.006746
-31.103052	0.006721
-31.028014	0.006636
-30.952976	0.006426
-30.877939	0.006790
-30.802901	0.006721
-30.727864	0.006696
-30.652826	0.006942
-30.577789	0.007029
-30.502751	0.006962
-30.427714	0.006711
-30.352676	0.006763
-30.277639	0.006871
-30.202601	0.006742
-30.127564	0.007262
-30.052526	0.007201
-29.977489	0.006890
-29.902451	0.006790
-29.827414	0.006528
-29.752376	0.006987
-29.677339	0.006703
-29.602301	0.006848
-29.527264	0.006969
-29.452226	0.006971
-29.377189	0.006944
-29.302151	0.006775
-29.227114	0.006674
-29.152076	0.006746
-29.077039	0.006757
-29.002001	0.006530
-28.926963	0.006923
-28.851926	0.006944
-28.776888	0.006688
-28.701851	0.006827
-28.626813	0.006927
-28.551776	0.007027
-28.476738	0.006985
-28.401701	0.006740
-28.326663	0.006676
-28.251626	0.006881
-28.176588	0.006522
-28.101551	0.006759
-28.026513	0.006761
-27.951476	0.006896
-27.876438	0.006580
-27.801401	0.007025
-27.726363	0.006813
-27.651326	0.006765
-27.576288	0.006877
-27.501251	0.006680
-27.426213	0.006678
-27.351176	0.006599
-27.276138	0.006740
-27.201101	0.006761
-27.126063	0.006911
-27.051026	0.006838
-26.975988	0.006807
-26.900950	0.006786
-26.825913	0.006983
-26.750875	0.006967
-26.675838	0.006886
-26.600800	0.006950
-26.525763	0.006561
-26.450725	0.006931
-26.375688	0.006852
-26.300650	0.007008
-26.225613	0.006657
-26.150575	0.006906
-26.075538	0.006724
-26.000500	0.006867
-25.925463	0.006765
-25.850425	0.006811
-25.775388	0.006854
-25.700350	0.006570
-25.625313	0.006696
-25.550275	0.006898
-25.475238	0.007019
-25.400200	0.007006
-25.325163	0.006566
-25.250125	0.006578
-25.175088	0.006570
-25.100050	0.006628
-25.025013	0.006840
-24.949975	0.006985
-24.874937	0.006678
-24.799900	0.007106
-24.724862	0.007141
-24.649825	0.006661
-24.574787	0.006549
-24.499750	0.006503
-24.424712	0.006821
-24.349675	0.006769
-24.274637	0.006649
-24.199600	0.006609
-24.124562	0.006553
-24.049525	0.006948
-23.974487	0.006867
-23.899450	0.006724
-23.824412	0.007006
-23.749375	0.006908
-23.674337	0.007087
-23.599300	0.006564
-23.524262	0.006815
-23.449225	0.006838
-23.374187	0.006863
-23.299150	0.006788
-23.224112	0.006917
-23.149075	0.006962
-23.074037	0.006680
-22.998999	0.006482
-22.923962	0.006823
-22.848924	0.006744
-22.773887	0.006840
-22.698849	0.006960
-22.623812	0.006998
-22.548774	0.006883
-22.473737	0.006549
-22.398699	0.006813
-22.323662	0.006861
-22.248624	0.006692
-22.173587	0.006420
-22.098549	0.006613
-22.023512	0.006751
-21.948474	0.006672
-21.873437	0.006811
-21.798399	0.006898
-21.723362	0.006738
-21.648324	0.006825
-21.573287	0.006979
-21.498249	0.006798
-21.423212	0.006819
-21.348174	0.006549
-21.273137	0.006736
-21.198099	0.007135
-21.123062	0.006859
-21.048024	0.006842
-20.972986	0.006707
-20.897949	0.006715
-20.822911	0.007089
-20.747874	0.006784
-20.672836	0.006715
-20.597799	0.006279
-20.522761	0.006613
-20.447724	0.006711
-20.372686	0.006634
-20.297649	0.006873
-20.222611	0.006753
-20.147574	0.006626
-20.072536	0.006765
-19.997499	0.006940
-19.922461	0.007058
-19.847424	0.007056
-19.772386	0.006989
-19.697349	0.007122
-19.622311	0.007031
-19.547274	0.006802
-19.472236	0.007087
-19.397199	0.006628
-19.322161	0.006794
-19.247124	0.006543
-19.172086	0.006778
-19.097049	0.006651
-19.022011	0.006578
-18.946973	0.006794
-18.871936	0.006950
-18.796898	0.006825
-18.721861	0.006975
-18.646823	0.006520
-18.571786	0.006512
-18.496748	0.006717
-18.421711	0.006751
-18.346673	0.007056
-18.271636	0.006902
-18.196598	0.006609
-18.121561	0.006950
-18.046523	0.006551
-17.971486	0.006863
-17.896448	0.006694
-17.821411	0.006510
-17.746373	0.006911
-17.671336	0.006499
-17.596298	0.006908
-17.521261	0.006736
-17.446223	0.006871
-17.371186	0.006696
-17.296148	0.007010
-17.221111	0.007197
-17.146073	0.006921
-17.071036	0.007093
-16.995998	0.006586
-16.920960	0.006719
-16.845923	0.006865
-16.770885	0.006773
-16.695848	0.006836
-16.620810	0.006769
-16.545773	0.006911
-16.470735	0.006445
-16.395698	0.006813
-16.320660	0.006547
-16.245623	0.006861
-16.170585	0.006925
-16.095548	0.006913
-16.020510	0.006701
-15.945473	0.006609
-15.870435	0.006389
-15.795398	0.006678
-15.720360	0.006819
-15.645323	0.006900
-15.570285	0.006894
-15.495248	0.006813
-15.420210	0.006817
-15.345173	0.006763
-15.270135	0.006748
-15.195098	0.006713
-15.120060	0.006674
-15.045023	0.006813
-14.969985	0.006809
-14.894947	0.006919
-14.819910	0.007100
-14.744872	0.006748
-14.669835	0.006543
-14.594797	0.007041
-14.519760	0.006869
-14.444722	0.006686
-14.369685	0.006626
-14.294647	0.006223
-14.219610	0.007162
-14.144572	0.006721
-14.069535	0.006724
-13.994497	0.006775
-13.919460	0.005980
-13.844422	0.006838
-13.769385	0.006730
-13.694347	0.006451
-13.619310	0.006863
-13.544272	0.006759
-13.469235	0.006738
-13.394197	0.006854
-13.319160	0.006875
-13.244122	0.006634
-13.169085	0.006713
-13.094047	0.006956
-13.019010	0.006659
-12.943972	0.007305
-12.868934	0.006819
-12.793897	0.006663
-12.718859	0.006852
-12.643822	0.006746
-12.568784	0.007282
-12.493747	0.006846
-12.418709	0.006840
-12.343672	0.006717
-12.268634	0.007091
-12.193597	0.007181
-12.118559	0.006613
-12.043522	0.006821
-11.968484	0.006983
-11.893447	0.006699
-11.818409	0.006416
-11.743372	0.006736
-11.668334	0.006416
-11.593297	0.006773
-11.518259	0.006778
-11.443222	0.006630
-11.368184	0.006900
-11.293147	0.006863
-11.218109	0.006755
-11.143072	0.006744
-11.068034	0.007158
-10.992996	0.006711
-10.917959	0.006755
-10.842921	0.006570
-10.767884	0.006811
-10.692846	0.007347
-10.617809	0.006865
-10.542771	0.007002
-10.467734	0.006667
-10.392696	0.006624
-10.317659	0.006892
-10.242621	0.006890
-10.167584	0.006780
-10.092546	0.006634
-10.017509	0.006846
-9.942471	0.007060
-9.867434	0.006669
-9.792396	0.006790
-9.717359	0.006520
-9.642321	0.007037
-9.567284	0.006892
-9.492246	0.006802
-9.417209	0.006790
-9.342171	0.006636
-9.267134	0.006647
-9.192096	0.006811
-9.117059	0.006514
-9.042021	0.006744
-8.966983	0.006819
-8.891946	0.006636
-8.816908	0.006788
-8.741871	0.006694
-8.666833	0.006703
-8.591796	0.006599
-8.516758	0.006938
-8.441721	0.006699
-8.366683	0.006555
-8.291646	0.006676
-8.216608	0.006973
-8.141571	0.006759
-8.066533	0.006738
-7.991496	0.006989
-7.916458	0.006846
-7.841421	0.006898
-7.766383	0.006823
-7.691346	0.006692
-7.616308	0.006794
-7.541271	0.006686
-7.466233	0.006775
-7.391196	0.006829
-7.316158	0.006834
-7.241121	0.006883
-7.166083	0.006711
-7.091046	0.006788
-7.016008	0.006607
-6.940970	0.006647
-6.865933	0.006846
-6.790895	0.006711
-6.715858	0.006890
-6.640820	0.006713
-6.565783	0.006495
-6.490745	0.006923
-6.415708	0.007023
-6.340670	0.007147
-6.265633	0.006678
-6.190595	0.006759
-6.115558	0.006871
-6.040520	0.006505
-5.965483	0.006717
-5.890445	0.006871
-5.815408	0.007058
-5.740370	0.006636
-5.665333	0.006981
-5.590295	0.006836
-5.515258	0.006724
-5.440220	0.006601
-5.365183	0.006732
-5.290145	0.006867
-5.215108	0.006524
-5.140070	0.006690
-5.065033	0.006827
-4.989995	0.006682
-4.914957	0.006686
-4.839920	0.006647
-4.764882	0.006534
-4.689845	0.006848
-4.614807	0.006786
-4.539770	0.006732
-4.464732	0.006773
-4.389695	0.006805
-4.314657	0.006823
-4.239620	0.006561
-4.164582	0.007100
-4.089545	0.006867
-4.014507	0.006753
-3.939470	0.006786
-3.864432	0.006879
-3.789395	0.006694
-3.714357	0.007274
-3.639320	0.006659
-3.564282	0.006578
-3.489245	0.007066
-3.414207	0.007116
-3.339170	0.006894
-3.264132	0.006680
-3.189095	0.006967
-3.114057	0.006780
-3.039020	0.006651
-2.963982	0.006790
-2.888944	0.006717
-2.813907	0.006686
-2.738869	0.007139
-2.663832	0.006983
-2.588794	0.006844
-2.513757	0.006840
-2.438719	0.006603
-2.363682	0.006690
-2.288644	0.006624
-2.213607	0.007070
-2.138569	0.007002
-2.063532	0.006873
-1.988494	0.006859
-1.913457	0.006703
-1.838419	0.006925
-1.763382	0.006630
-1.688344	0.006977
-1.613307	0.006682
-1.538269	0.006778
-1.463232	0.006699
-1.388194	0.006838
-1.313157	0.006767
-1.238119	0.006755
-1.163082	0.006757
-1.088044	0.007164
-1.013007	0.006998
-0.937969	0.007064
-0.862931	0.006763
-0.787894	0.006738
-0.712856	0.006911
-0.637819	0.006647
-0.562781	0.007135
-0.487744	0.006940
-0.412706	0.006593
-0.337669	0.006840
-0.262631	0.006532
-0.187594	0.006755
-0.112556	0.006634
-0.037519	0.007108
0.037519	0.006751
0.112556	0.006699
0.187594	0.007137
0.262631	0.006996
0.337669	0.006445
0.412706	0.006761
0.487744	0.006634
0.562781	0.006412
0.637819	0.006827
0.712856	0.006769
0.787894	0.006676
0.862931	0.006711
0.937969	0.007339
1.013007	0.006674
1.088044	0.006435
1.163082	0.007201
1.238119	0.006634
1.313157	0.006763
1.388194	0.006730
1.463232	0.006834
1.538269	0.006915
1.613307	0.006748
1.688344	0.006915
1.763382	0.007100
1.838419	0.006730
1.913457	0.006713
1.988494	0.007027
2.063532	0.006561
2.138569	0.006904
2.213607	0.006539
2.288644	0.006611
2.363682	0.007019
2.438719	0.006738
2.513757	0.006649
2.588794	0.006699
2.663832	0.006971
2.738869	0.006620
2.813907	0.006638
2.888944	0.006788
2.963982	0.007012
3.039020	0.006969
3.114057	0.006938
3.189095	0.006767
3.264132	0.006757
3.339170	0.006996
3.414207	0.007043
3.489245	0.007000
3.564282	0.006505
3.639320	0.006929
3.714357	0.006620
3.789395	0.006925
3.864432	0.006977
3.939470	0.006634
4.014507	0.006559
4.089545	0.006915
4.164582	0.006732
4.239620	0.006551
4.314657	0.006597
4.389695	0.006836
4.464732	0.006773
4.539770	0.006699
4.614807	0.006618
4.689845	0.006794
4.764882	0.006584
4.839920	0.006640
4.914957	0.006713
4.989995	0.006900
5.065033	0.006572
5.140070	0.006588
5.215108	0.006547
5.290145	0.007062
5.365183	0.006792
5.440220	0.006574
5.515258	0.006645
5.590295	0.006659
5.665333	0.006669
5.740370	0.006975
5.815408	0.006780
5.890445	0.006356
5.965483	0.006724
6.040520	0.006703
6.115558	0.006915
6.190595	0.006927
6.265633	0.006871
6.340670	0.006900
6.415708	0.006713
6.490745	0.006844
6.565783	0.006898
6.640820	0.006570
6.715858	0.006661
6.790895	0.006792
6.865933	0.006574
6.940970	0.006753
7.016008	0.007100
7.091046	0.006832
7.166083	0.006580
7.241121	0.006482
7.316158	0.006709
7.391196	0.006894
7.466233	0.006738
7.541271	0.006645
7.616308	0.006811
7.691346	0.006775
7.766383	0.006539
7.841421	0.006566
7.916458	0.006842
7.991496	0.006969
8.066533	0.006757
8.141571	0.006838
8.216608	0.006705
8.291646	0.007043
8.366683	0.006601
8.441721	0.006807
8.516758	0.006667
8.591796	0.006807
8.666833	0.007077
8.741871	0.006694
8.816908	0.006636
8.891946	0.007087
8.966983	0.006728
9.042021	0.007160
9.117059	0.006994
9.192096	0.006345
9.267134	0.006591
9.342171	0.006823
9.417209	0.006875
9.492246	0.007062
9.567284	0.006580
9.642321	0.006682
9.717359	0.006896
9.792396	0.006755
9.867434	0.006628
9.942471	0.006859
10.017509	0.006875
10.092546	0.006676
10.167584	0.006607
10.242621	0.006788
10.317659	0.006659
10.392696	0.006717
10.467734	0.006794
10.542771	0.007033
10.617809	0.006778
10.692846	0.007021
10.767884	0.006879
10.842921	0.006395
10.917959	0.006724
10.992996	0.007052
11.068034	0.006852
11.143072	0.006856
11.218109	0.007073
11.293147	0.006719
11.368184	0.006624
11.443222	0.006730
11.518259	0.006861
11.593297	0.007176
11.668334	0.006950
11.743372	0.006902
11.818409	0.006640
11.893447	0.006998
11.968484	0.006786
12.043522	0.006618
12.118559	0.006771
12.193597	0.006520
12.268634	0.006773
12.343672	0.006888
12.418709	0.006908
12.493747	0.006759
12.568784	0.007415
12.643822	0.006684
12.718859	0.007097
12.793897	0.007164
12.868934	0.006886
12.943972	0.007056
13.019010	0.006701
13.094047	0.006715
13.169085	0.007122
13.244122	0.006755
13.319160	0.006773
13.394197	0.006900
13.469235	0.007282
13.544272	0.006512
13.619310	0.006734
13.694347	0.006811
13.769385	0.006902
13.844422	0.006852
13.919460	0.006805
13.994497	0.006717
14.069535	0.007050
14.144572	0.006798
14.219610	0.006669
14.294647	0.007054
14.369685	0.007147
14.444722	0.006736
14.519760	0.006967
14.594797	0.006744
14.669835	0.006950
14.744872	0.006823
14.819910	0.007143
14.894947	0.006911
14.969985	0.006886
15.045023	0.007114
15.120060	0.006497
15.195098	0.006805
15.270135	0.006609
15.345173	0.007029
15.420210	0.006738
15.495248	0.006728
15.570285	0.006929
15.645323	0.007035
15.720360	0.006717
15.795398	0.006817
15.870435	0.006969
15.945473	0.006927
16.020510	0.006584
16.095548	0.006850
16.170585	0.006886
16.245623	0.007125
16.320660	0.006861
16.395698	0.007528
16.470735	0.006674
16.545773	0.006883
16.620810	0.006985
16.695848	0.006626
16.770885	0.006944
16.845923	0.007461
16.920960	0.006574
16.995998	0.007183
17.071036	0.007046
17.146073	0.006935
17.221111	0.007314
17.296148	0.007064
17.371186	0.007170
17.446223	0.007611
17.521261	0.007588
17.596298	0.007341
17.671336	0.007424
17.746373	0.006981
17.821411	0.007511
17.896448	0.007154
17.971486	0.007255
18.046523	0.007735
18.121561	0.007690
18.196598	0.007650
18.271636	0.007401
18.346673	0.007372
18.421711	0.007715
18.496748	0.007345
18.571786	0.007399
18.646823	0.007330
18.721861	0.007208
18.796898	0.007821
18.871936	0.007393
18.946973	0.007875
19.022011	0.008084
19.097049	0.007118
19.172086	0.007681
19.247124	0.007476
19.322161	0.007534
19.397199	0.007598
19.472236	0.007345
19.547274	0.007498
19.622311	0.007756
19.697349	0.007629
19.772386	0.007951
19.847424	0.007390
19.922461	0.007802
19.997499	0.007214
20.072536	0.007796
20.147574	0.007305
20.222611	0.007097
20.297649	0.007627
20.372686	0.007276
20.447724	0.007303
20.522761	0.007706
20.597799	0.007266
20.672836	0.007403
20.747874	0.007403
20.822911	0.007482
20.897949	0.007056
20.972986	0.007407
21.048024	0.007129
21.123062	0.007517
21.198099	0.007596
21.273137	0.007118
21.348174	0.007517
21.423212	0.007432
21.498249	0.007471
21.573287	0.007436
21.648324	0.007837
21.723362	0.007981
21.798399	0.007829
21.873437	0.007343
21.948474	0.007509
22.023512	0.007887
22.098549	0.008334
22.173587	0.007875
22.248624	0.007877
22.323662	0.007924
22.398699	0.008028
22.473737	0.008550
22.548774	0.007976
22.623812	0.007567
22.698849	0.008053
22.773887	0.008111
22.848924	0.008357
22.923962	0.007922
22.998999	0.007885
23.074037	0.008710
23.149075	0.007794
23.224112	0.007750
23.299150	0.007985
23.374187	0.007798
23.449225	0.008190
23.524262	0.007721
23.599300	0.007885
23.674337	0.007607
23.749375	0.007328
23.824412	0.008037
23.899450	0.007731
23.974487	0.007496
24.049525	0.007970
24.124562	0.008099
24.199600	0.007754
24.274637	0.007476
24.349675	0.008261
24.424712	0.008317
24.499750	0.007789
24.574787	0.008448
24.649825	0.008120
24.724862	0.008475
24.799900	0.008866
24.874937	0.008246
24.949975	0.008182
25.025013	0.009217
25.100050	0.009119
25.175088	0.009468
25.250125	0.010948
25.325163	0.011072
25.400200	0.012458
25.475238	0.012986
25.550275	0.011947
25.625313	0.014112
25.700350	0.013655
25.775388	0.013956
25.850425	0.013144
25.925463	0.013449
26.000500	0.014272
26.075538	0.014388
26.150575	0.014931
26.225613	0.015859
26.300650	0.016532
26.375688	0.019734
26.450725	0.020293
26.525763	0.020426
26.600800	0.022176
26.675838	0.021315
26.750875	0.025718
26.825913	0.027335
26.900950	0.025940
26.975988	0.024899
27.051026	0.028739
27.126063	0.027671
27.201101	0.030206
27.276138	0.024523
27.351176	0.026830
27.426213	0.028637
27.501251	0.025261
27.576288	0.028159
27.651326	0.024409
27.726363	0.023075
27.801401	0.023593
27.876438	0.022967
27.951476	0.018689
28.026513	0.019369
28.101551	0.018816
28.176588	0.017891
28.251626	0.018033
28.326663	0.015344
28.401701	0.016119
28.476738	0.016377
28.551776	0.015616
28.626813	0.016462
28.701851	0.016075
28.776888	0.016480
28.851926	0.017197
28.926963	0.015537
29.002001	0.015442
29.077039	0.016728
29.152076	0.016196
29.227114	0.018184
29.302151	0.021521
29.377189	0.021799
29.452226	0.025967
29.527264	0.030449
29.602301	0.037788
29.677339	0.046391
29.752376	0.049227
29.827414	0.051500
29.902451	0.059965
29.977489	0.063258
30.052526	0.065103
30.127564	0.061193
30.202601	0.072190
30.277639	0.069992
30.352676	0.073738
30.427714	0.085683
30.502751	0.084983
30.577789	0.093552
30.652826	0.100497
30.727864	0.126097
30.802901	0.133211
30.877939	0.156184
30.952976	0.144589
31.028014	0.204442
31.103052	0.212609
31.178089	0.219445
31.253127	0.223492
31.328164	0.263368
31.403202	0.266890
31.478239	0.307436
31.553277	0.274862
31.628314	0.286364
31.703352	0.283391
31.778389	0.302140
31.853427	0.278068
31.928464	0.288461
32.003502	0.258564
32.078539	0.291704
32.153577	0.291818
32.228614	0.284334
32.303652	0.278523
32.378689	0.308056
32.453727	0.303919
32.528764	0.339290
32.603802	0.297960
32.678839	0.313208
32.753877	0.304507
32.828914	0.300474
32.903952	0.292092
32.978989	0.297781
33.054027	0.326805
33.129065	0.308384
33.204102	0.300642
33.279140	0.315978
33.354177	0.335097
33.429215	0.330888
33.504252	0.339741
33.579290	0.357453
33.654327	0.342639
33.729365	0.369147
33.804402	0.423591
33.879440	0.352591
33.954477	0.353518
34.029515	0.326946
34.104552	0.363751
34.179590	0.360757
34.254627	0.338193
34.329665	0.345920
34.404702	0.356828
34.479740	0.338727
34.554777	0.370202
34.629815	0.317972
34.704852	0.316200
34.779890	0.289778
34.854927	0.335101
34.929965	0.321438
35.005003	0.373252
35.080040	0.362621
35.155078	0.347083
35.230115	0.350674
35.305153	0.370782
35.380190	0.346778
35.455228	0.381470
35.530265	0.368592
35.605303	0.355430
35.680340	0.362897
35.755378	0.347349
35.830415	0.377624
35.905453	0.384825
35.980490	0.401189
36.055528	0.373057
36.130565	0.406567
36.205603	0.350557
36.280640	0.370221
36.355678	0.377127
36.430715	0.331584
36.505753	0.371686
36.580790	0.371441
36.655828	0.341062
36.730865	0.335529
36.805903	0.364345
36.880940	0.322365
36.955978	0.313630
37.031016	0.320624
37.106053	0.306593
37.181091	0.310599
37.256128	0.321488
37.331166	0.300486
37.406203	0.293615
37.481241	0.323073
37.556278	0.303948
37.631316	0.292541
37.706353	0.304675
37.781391	0.293306
37.856428	0.312552
37.931466	0.327873
38.006503	0.298425
38.081541	0.309709
38.156578	0.344013
38.231616	0.304715
38.306653	0.306659
38.381691	0.326605
38.456728	0.274966
38.531766	0.323593
38.606803	0.339358
38.681841	0.368301
38.756878	0.306329
38.831916	0.339753
38.906953	0.324575
38.981991	0.303836
39.057029	0.310977
39.132066	0.245836
39.207104	0.310063
39.282141	0.329119
39.357179	0.333641
39.432216	0.300202
39.507254	0.335288
39.582291	0.336200
39.657329	0.309221
39.732366	0.354395
39.807404	0.349236
39.882441	0.330563
39.957479	0.360614
40.032516	0.321043
40.107554	0.315471
40.182591	0.319090
40.257629	0.356302
40.332666	0.321234
40.407704	0.329414
40.482741	0.366735
40.557779	0.321727
40.632816	0.324012
40.707854	0.341183
40.782891	0.253170
40.857929	0.318747
40.932966	0.323539
41.008004	0.301415
41.083042	0.276302
41.158079	0.263588
41.233117	0.279724
41.308154	0.255691
41.383192	0.239825
41.458229	0.265776
41.533267	0.260459
41.608304	0.256131
41.683342	0.272393
41.758379	0.208651
41.833417	0.298504
41.908454	0.312928
41.983492	0.314014
42.058529	0.297083
42.133567	0.317862
42.208604	0.351654
42.283642	0.326915
42.358679	0.339753
42.433717	0.342768
42.508754	0.315517
42.583792	0.306366
42.658829	0.314935
42.733867	0.231410
42.808904	0.296489
42.883942	0.296921
42.958979	0.271195
43.034017	0.258865
43.109055	0.248853
43.184092	0.261571
43.259130	0.233347
43.334167	0.234880
43.409205	0.252431
43.484242	0.255975
43.559280	0.226002
43.634317	0.256676
43.709355	0.240091
43.784392	0.233120
43.859430	0.197654
43.934467	0.226276
44.009505	0.191632
44.084542	0.218150
44.159580	0.222352
44.234617	0.212324
44.309655	0.207224
44.384692	0.226912
44.459730	0.221344
44.534767	0.209461
44.609805	0.220315
44.684842	0.238030
44.759880	0.258604
44.834917	0.245215
44.909955	0.265412
44.984992	0.268647
45.060030	0.259888
45.135068	0.257631
45.210105	0.258126
45.285143	0.255732
45.360180	0.256817
45.435218	0.265980
45.510255	0.224810
45.585293	0.219422
45.660330	0.232888
45.735368	0.225528
45.810405	0.218051
45.885443	0.209303
45.960480	0.242713
46.035518	0.243733
46.110555	0.267544
46.185593	0.239630
46.260630	0.227236
46.335668	0.264371
46.410705	0.252925
46.485743	0.239181
46.560780	0.240401
46.635818	0.220482
46.710855	0.214990
46.785893	0.216644
46.860930	0.190519
46.935968	0.181215
47.011006	0.168645
47.086043	0.174462
47.161081	0.153876
47.236118	0.165129
47.311156	0.148956
47.386193	0.143596
47.461231	0.138048
47.536268	0.142043
47.611306	0.126984
47.686343	0.119488
47.761381	0.114096
47.836418	0.106928
47.911456	0.095278
47.986493	0.084075
48.061531	0.067989
48.136568	0.072826
48.211606	0.075292
48.286643	0.060341
48.361681	0.058718
48.436718	0.056599
48.511756	0.047698
48.586793	0.047050
48.661831	0.049643
48.736868	0.050214
48.811906	0.048579
48.886943	0.046892
48.961981	0.046867
49.037019	0.051401
49.112056	0.042662
49.187094	0.039587
49.262131	0.040154
49.337169	0.039514
49.412206	0.034974
49.487244	0.032348
49.562281	0.031719
49.637319	0.030545
49.712356	0.027364
49.787394	0.028531
49.862431	0.028741
49.937469	0.029982
50.012506	0.026749
50.087544	0.027781
50.162581	0.027841
50.237619	0.030919
50.312656	0.030160
50.387694	0.029657
50.462731	0.026427
50.537769	0.028656
50.612806	0.024742
50.687844	0.023933
50.762881	0.023208
50.837919	0.022425
50.912956	0.019726
50.987994	0.018567
51.063032	0.018010
51.138069	0.018808
51.213107	0.018155
51.288144	0.019281
51.363182	0.016518
51.438219	0.014685
51.513257	0.016497
51.588294	0.015982
51.663332	0.014149
51.738369	0.013169
51.813407	0.012813
51.888444	0.013613
51.963482	0.011421
52.038519	0.011779
52.113557	0.012338
52.188594	0.011189
52.263632	0.009678
52.338669	0.009294
52.413707	0.009751
52.488744	0.009487
52.563782	0.009377
52.638819	0.009325
52.713857	0.008822
52.788894	0.009603
52.863932	0.009595
52.938969	0.008872
53.014007	0.008940
53.089045	0.008382
53.164082	0.008057
53.239120	0.008616
53.314157	0.008581
53.389195	0.008404
53.464232	0.008219
53.539270	0.007966
53.614307	0.007700
53.689345	0.008469
53.764382	0.007843
53.839420	0.007627
53.914457	0.008116
53.989495	0.007912
54.064532	0.007417
54.139570	0.007812
54.214607	0.007887
54.289645	0.007488
54.364682	0.007985
54.439720	0.007910
54.514757	0.007532
54.589795	0.007465
54.664832	0.007226
54.739870	0.007962
54.814907	0.007538
54.889945	0.007366
54.964982	0.007424
55.040020	0.007343
55.115058	0.007245
55.190095	0.007478
55.265133	0.007118
55.340170	0.007526
55.415208	0.007609
55.490245	0.007359
55.565283	0.007133
55.640320	0.007233
55.715358	0.007077
55.790395	0.007278
55.865433	0.007120
55.940470	0.007019
56.015508	0.007366
56.090545	0.007075
56.165583	0.006948
56.240620	0.006861
56.315658	0.007257
56.390695	0.007235
56.465733	0.007621
56.540770	0.007307
56.615808	0.007550
56.690845	0.007314
56.765883	0.006881
56.840920	0.007320
56.915958	0.006709
56.990995	0.006751
57.066033	0.007100
57.141071	0.007077
57.216108	0.007496
57.291146	0.007104
57.366183	0.007266
57.441221	0.007197
57.516258	0.006838
57.591296	0.007102
57.666333	0.006784
57.741371	0.007183
57.816408	0.007482
57.891446	0.006935
57.966483	0.007145
58.041521	0.007341
58.116558	0.006773
58.191596	0.006823
58.266633	0.007255
58.341671	0.007143
58.416708	0.007617
58.491746	0.006844
58.566783	0.007274
58.641821	0.007330
58.716858	0.007841
58.791896	0.007519
58.866933	0.007474
58.941971	0.007557
59.017009	0.007636
59.092046	0.007411
59.167084	0.007519
59.242121	0.007866
59.317159	0.006967
59.392196	0.007299
59.467234	0.007617
59.542271	0.007276
59.617309	0.007613
59.692346	0.007496
59.767384	0.007958
59.842421	0.007675
59.917459	0.007875
59.992496	0.007991
60.067534	0.007764
60.142571	0.007808
60.217609	0.007997
60.292646	0.007756
60.367684	0.007856
60.442721	0.007931
60.517759	0.007378
60.592796	0.007264
60.667834	0.007471
60.742871	0.007615
60.817909	0.007615
60.892946	0.007185
60.967984	0.007222
61.043022	0.007546
61.118059	0.008016
61.193097	0.007588
61.268134	0.007767
61.343172	0.007756
61.418209	0.007289
61.493247	0.007555
61.568284	0.007999
61.643322	0.007777
61.718359	0.007484
61.793397	0.007538
61.868434	0.007409
61.943472	0.007885
62.018509	0.007594
62.093547	0.007164
62.168584	0.007181
62.243622	0.007079
62.318659	0.006595
62.393697	0.006840
62.468734	0.006904
62.543772	0.007266
62.618809	0.006686
62.693847	0.006987
62.768884	0.006917
62.843922	0.007368
62.918959	0.006998
62.993997	0.006917
63.069035	0.006952
63.144072	0.006844
63.219110	0.006649
63.294147	0.006859
63.369185	0.006721
63.444222	0.006802
63.519260	0.006780
63.594297	0.006798
63.669335	0.006624
63.744372	0.006911
63.819410	0.006881
63.894447	0.006568
63.969485	0.006834
64.044522	0.006672
64.119560	0.006757
64.194597	0.006908
64.269635	0.006944
64.344672	0.006564
64.419710	0.006603
64.494747	0.006742
64.569785	0.006832
64.644822	0.006512
64.719860	0.007116
64.794897	0.006811
64.869935	0.006769
64.944972	0.006711
65.020010	0.006771
65.095048	0.006792
65.170085	0.007043
65.245123	0.006736
65.320160	0.006688
65.395198	0.006908
65.470235	0.006753
65.545273	0.007087
65.620310	0.006825
65.695348	0.006892
65.770385	0.006755
65.845423	0.006678
65.920460	0.007251
65.995498	0.006748
66.070535	0.007174
66.145573	0.006921
66.220610	0.007214
66.295648	0.006883
66.370685	0.006730
66.445723	0.006520
66.520760	0.006873
66.595798	0.006832
66.670835	0.006757
66.745873	0.006393
66.820910	0.006836
66.895948	0.006582
66.970985	0.006983
67.046023	0.006915
67.121061	0.006672
67.196098	0.006584
67.271136	0.007245
67.346173	0.006453
67.421211	0.006676
67.496248	0.007066
67.571286	0.006753
67.646323	0.006626
67.721361	0.006873
67.796398	0.006786
67.871436	0.006728
67.946473	0.006507
68.021511	0.006748
68.096548	0.007087
68.171586	0.006489
68.246623	0.006780
68.321661	0.006653
68.396698	0.006985
68.471736	0.006794
68.546773	0.006582
68.621811	0.006559
68.696848	0.006597
68.771886	0.006694
68.846923	0.006819
68.921961	0.006705
68.996998	0.006605
69.072036	0.006958
69.147074	0.006875
69.222111	0.006740
69.297149	0.006539
69.372186	0.006591
69.447224	0.007064
69.522261	0.006495
69.597299	0.006994
69.672336	0.006877
69.747374	0.006948
69.822411	0.007060
69.897449	0.006674
69.972486	0.006792
70.047524	0.006613
70.122561	0.006717
70.197599	0.006707
70.272636	0.006825
70.347674	0.006688
70.422711	0.006769
70.497749	0.006537
70.572786	0.006813
70.647824	0.006985
70.722861	0.007021
70.797899	0.006615
70.872936	0.006574
70.947974	0.006778
71.023012	0.006692
71.098049	0.006935
71.173087	0.006892
71.248124	0.006692
71.323162	0.006640
71.398199	0.006694
71.473237	0.006825
71.548274	0.006938
71.623312	0.006518
71.698349	0.006784
71.773387	0.006794
71.848424	0.006979
71.923462	0.006867
71.998499	0.006711
72.073537	0.006601
72.148574	0.006595
72.223612	0.006944
72.298649	0.006846
72.373687	0.007002
72.448724	0.006819
72.523762	0.007006
72.598799	0.006815
72.673837	0.006757
72.748874	0.006555
72.823912	0.006869
72.898949	0.006593
72.973987	0.006738
73.049025	0.006790
73.124062	0.006331
73.199100	0.006815
73.274137	0.006736
73.349175	0.006499
73.424212	0.006904
73.499250	0.006512
73.574287	0.006946
73.649325	0.006861
73.724362	0.006724
73.799400	0.006834
73.874437	0.006549
73.949475	0.006624
74.024512	0.006873
74.099550	0.006807
74.174587	0.006676
74.249625	0.006765
74.324662	0.006809
74.399700	0.007066
74.474737	0.006426
74.549775	0.006940
74.624812	0.006520
74.699850	0.006886
74.774887	0.006680
74.849925	0.007145
74.924962	0.006672
75.000000	0.006559
